   
#k-dist(A-1)  energy(eV) : 1 -th eigen 
#wavefunct. coeff.:       1       2       3   
  0.0000  -0.5429   0.9841   0.1540   0.0889  
  0.0135  -0.5427   0.9841   0.1539   0.0888  
  0.0270  -0.5419   0.9842   0.1536   0.0887  
  0.0404  -0.5406   0.9843   0.1530   0.0883  
  0.0539  -0.5388   0.9844   0.1522   0.0879  
  0.0674  -0.5365   0.9846   0.1513   0.0873  
  0.0809  -0.5338   0.9849   0.1501   0.0866  
  0.0943  -0.5305   0.9852   0.1486   0.0858  
  0.1078  -0.5268   0.9855   0.1470   0.0849  
  0.1213  -0.5226   0.9858   0.1452   0.0838  
  0.1348  -0.5180   0.9862   0.1432   0.0827  
  0.1482  -0.5130   0.9867   0.1410   0.0814  
  0.1617  -0.5075   0.9871   0.1386   0.0800  
  0.1752  -0.5018   0.9876   0.1361   0.0785  
  0.1887  -0.4956   0.9881   0.1333   0.0770  
  0.2021  -0.4892   0.9886   0.1304   0.0753  
  0.2156  -0.4824   0.9891   0.1274   0.0735  
  0.2291  -0.4754   0.9897   0.1242   0.0717  
  0.2426  -0.4681   0.9902   0.1208   0.0698  
  0.2561  -0.4606   0.9908   0.1173   0.0677  
  0.2695  -0.4530   0.9913   0.1138   0.0657  
  0.2830  -0.4452   0.9919   0.1101   0.0635  
  0.2965  -0.4372   0.9924   0.1063   0.0613  
  0.3100  -0.4292   0.9930   0.1024   0.0591  
  0.3234  -0.4211   0.9935   0.0984   0.0568  
  0.3369  -0.4130   0.9940   0.0944   0.0545  
  0.3504  -0.4049   0.9946   0.0903   0.0521  
  0.3639  -0.3968   0.9950   0.0861   0.0497  
  0.3773  -0.3888   0.9955   0.0819   0.0473  
  0.3908  -0.3809   0.9960   0.0777   0.0449  
  0.4043  -0.3731   0.9964   0.0735   0.0424  
  0.4178  -0.3655   0.9968   0.0692   0.0400  
  0.4313  -0.3580   0.9972   0.0650   0.0375  
  0.4447  -0.3508   0.9975   0.0608   0.0351  
  0.4582  -0.3439   0.9979   0.0565   0.0326  
  0.4717  -0.3372   0.9982   0.0523   0.0302  
  0.4852  -0.3308   0.9985   0.0482   0.0278  
  0.4986  -0.3247   0.9987   0.0441   0.0254  
  0.5121  -0.3190   0.9989   0.0400   0.0231  
  0.5256  -0.3137   0.9991   0.0360   0.0208  
  0.5391  -0.3087   0.9993   0.0320   0.0185  
  0.5525  -0.3042   0.9995   0.0281   0.0162  
  0.5660  -0.3002   0.9996   0.0243   0.0140  
  0.5795  -0.2966   0.9997   0.0206   0.0119  
  0.5930  -0.2936   0.9998   0.0169   0.0098  
  0.6064  -0.2910   0.9999   0.0134   0.0077  
  0.6199  -0.2890   0.9999   0.0099   0.0057  
  0.6334  -0.2875   1.0000   0.0065   0.0037  
  0.6469  -0.2866   1.0000   0.0032   0.0018  
  0.6604  -0.2863   1.0000   0.0000   0.0000  
  0.6604  -0.2863   1.0000   0.0000   0.0000  
  0.6873  -0.2876   1.0000   0.0061   0.0035  
  0.7143  -0.2913   0.9999   0.0118   0.0068  
  0.7412  -0.2977   0.9998   0.0170   0.0098  
  0.7682  -0.3069   0.9997   0.0219   0.0126  
  0.7951  -0.3188   0.9995   0.0263   0.0152  
  0.8221  -0.3336   0.9994   0.0303   0.0175  
  0.8490  -0.3512   0.9992   0.0338   0.0195  
  0.8760  -0.3718   0.9991   0.0370   0.0214  
  0.9029  -0.3953   0.9989   0.0398   0.0230  
  0.9299  -0.4217   0.9988   0.0421   0.0243  
  0.9568  -0.4510   0.9987   0.0441   0.0255  
  0.9838  -0.4831   0.9986   0.0458   0.0264  
  1.0107  -0.5180   0.9985   0.0470   0.0272  
  1.0377  -0.5557   0.9985   0.0480   0.0277  
  1.0646  -0.5959   0.9984   0.0486   0.0281  
  1.0916  -0.6386   0.9984   0.0489   0.0282  
  1.1186  -0.6836   0.9984   0.0489   0.0282  
  1.1455  -0.7309   0.9984   0.0486   0.0281  
  1.1725  -0.7802   0.9985   0.0481   0.0278  
  1.1994  -0.8315   0.9985   0.0473   0.0273  
  1.2264  -0.8844   0.9986   0.0463   0.0267  
  1.2533  -0.9388   0.9986   0.0451   0.0260  
  1.2803  -0.9944   0.9987   0.0436   0.0252  
  1.3072  -1.0512   0.9988   0.0420   0.0243  
  1.3342  -1.1087   0.9989   0.0403   0.0233  
  1.3611  -1.1667   0.9990   0.0384   0.0222  
  1.3881  -1.2251   0.9991   0.0364   0.0210  
  1.4150  -1.2835   0.9992   0.0343   0.0198  
  1.4420  -1.3416   0.9993   0.0321   0.0185  
  1.4689  -1.3992   0.9994   0.0298   0.0172  
  1.4959  -1.4560   0.9995   0.0275   0.0159  
  1.5229  -1.5118   0.9996   0.0252   0.0145  
  1.5498  -1.5661   0.9997   0.0229   0.0132  
  1.5768  -1.6189   0.9997   0.0205   0.0119  
  1.6037  -1.6697   0.9998   0.0183   0.0106  
  1.6307  -1.7183   0.9998   0.0161   0.0093  
  1.6576  -1.7646   0.9999   0.0140   0.0081  
  1.6846  -1.8081   0.9999   0.0119   0.0069  
  1.7115  -1.8487   0.9999   0.0100   0.0058  
  1.7385  -1.8861   1.0000   0.0082   0.0047  
  1.7654  -1.9203   1.0000   0.0066   0.0038  
  1.7924  -1.9508   1.0000   0.0051   0.0029  
  1.8193  -1.9777   1.0000   0.0038   0.0022  
  1.8463  -2.0007   1.0000   0.0026   0.0015  
  1.8732  -2.0197   1.0000   0.0017   0.0010  
  1.9002  -2.0346   1.0000   0.0010   0.0006  
  1.9271  -2.0453   1.0000   0.0004   0.0002  
  1.9541  -2.0517   1.0000   0.0001   0.0001  
  1.9811  -2.0539   1.0000   0.0000   0.0000  
  1.9811  -2.0539   1.0000   0.0000   0.0000  
  2.0080  -2.0517   1.0000   0.0000   0.0001  
  2.0350  -2.0453   1.0000   0.0000   0.0005  
  2.0619  -2.0346   1.0000   0.0000   0.0011  
  2.0889  -2.0197   1.0000   0.0000   0.0020  
  2.1158  -2.0007   1.0000   0.0000   0.0030  
  2.1428  -1.9777   1.0000   0.0000   0.0044  
  2.1697  -1.9508   1.0000   0.0000   0.0059  
  2.1967  -1.9203   1.0000   0.0000   0.0076  
  2.2236  -1.8861   1.0000   0.0000   0.0095  
  2.2506  -1.8487   0.9999   0.0000   0.0116  
  2.2775  -1.8081   0.9999   0.0000   0.0138  
  2.3045  -1.7646   0.9999   0.0000   0.0161  
  2.3314  -1.7183   0.9998   0.0000   0.0186  
  2.3584  -1.6697   0.9998   0.0000   0.0211  
  2.3854  -1.6189   0.9997   0.0000   0.0237  
  2.4123  -1.5661   0.9997   0.0000   0.0264  
  2.4393  -1.5118   0.9996   0.0000   0.0291  
  2.4662  -1.4560   0.9995   0.0000   0.0317  
  2.4932  -1.3992   0.9994   0.0000   0.0344  
  2.5201  -1.3416   0.9993   0.0000   0.0370  
  2.5471  -1.2835   0.9992   0.0000   0.0395  
  2.5740  -1.2251   0.9991   0.0000   0.0420  
  2.6010  -1.1667   0.9990   0.0000   0.0443  
  2.6279  -1.1087   0.9989   0.0000   0.0465  
  2.6549  -1.0512   0.9988   0.0000   0.0485  
  2.6818  -0.9944   0.9987   0.0000   0.0504  
  2.7088  -0.9388   0.9986   0.0000   0.0520  
  2.7357  -0.8844   0.9986   0.0000   0.0534  
  2.7627  -0.8315   0.9985   0.0000   0.0546  
  2.7897  -0.7802   0.9985   0.0000   0.0555  
  2.8166  -0.7309   0.9984   0.0000   0.0561  
  2.8436  -0.6836   0.9984   0.0000   0.0565  
  2.8705  -0.6386   0.9984   0.0000   0.0565  
  2.8975  -0.5959   0.9984   0.0000   0.0561  
  2.9244  -0.5557   0.9985   0.0000   0.0554  
  2.9514  -0.5180   0.9985   0.0000   0.0543  
  2.9783  -0.4831   0.9986   0.0000   0.0529  
  3.0053  -0.4510   0.9987   0.0000   0.0510  
  3.0322  -0.4217   0.9988   0.0000   0.0487  
  3.0592  -0.3953   0.9989   0.0000   0.0459  
  3.0861  -0.3718   0.9991   0.0000   0.0427  
  3.1131  -0.3512   0.9992   0.0000   0.0391  
  3.1400  -0.3336   0.9994   0.0000   0.0350  
  3.1670  -0.3188   0.9995   0.0000   0.0304  
  3.1939  -0.3069   0.9997   0.0000   0.0253  
  3.2209  -0.2977   0.9998   0.0000   0.0197  
  3.2479  -0.2913   0.9999   0.0000   0.0136  
  3.2748  -0.2876   1.0000   0.0000   0.0070  
  3.3018  -0.2863   1.0000   0.0000   0.0000  
  3.3018  -0.2863   1.0000   0.0000   0.0000  
  3.3152  -0.2866   1.0000   0.0032   0.0018  
  3.3287  -0.2875   1.0000   0.0065   0.0037  
  3.3422  -0.2890   0.9999   0.0099   0.0057  
  3.3557  -0.2910   0.9999   0.0134   0.0077  
  3.3691  -0.2936   0.9998   0.0169   0.0098  
  3.3826  -0.2966   0.9997   0.0206   0.0119  
  3.3961  -0.3002   0.9996   0.0243   0.0140  
  3.4096  -0.3042   0.9995   0.0281   0.0162  
  3.4230  -0.3087   0.9993   0.0320   0.0185  
  3.4365  -0.3137   0.9991   0.0360   0.0208  
  3.4500  -0.3190   0.9989   0.0400   0.0231  
  3.4635  -0.3247   0.9987   0.0441   0.0254  
  3.4770  -0.3308   0.9985   0.0482   0.0278  
  3.4904  -0.3372   0.9982   0.0523   0.0302  
  3.5039  -0.3439   0.9979   0.0565   0.0326  
  3.5174  -0.3508   0.9975   0.0608   0.0351  
  3.5309  -0.3580   0.9972   0.0650   0.0375  
  3.5443  -0.3655   0.9968   0.0692   0.0400  
  3.5578  -0.3731   0.9964   0.0735   0.0424  
  3.5713  -0.3809   0.9960   0.0777   0.0449  
  3.5848  -0.3888   0.9955   0.0819   0.0473  
  3.5982  -0.3968   0.9950   0.0861   0.0497  
  3.6117  -0.4049   0.9946   0.0903   0.0521  
  3.6252  -0.4130   0.9940   0.0944   0.0545  
  3.6387  -0.4211   0.9935   0.0984   0.0568  
  3.6522  -0.4292   0.9930   0.1024   0.0591  
  3.6656  -0.4372   0.9924   0.1063   0.0613  
  3.6791  -0.4452   0.9919   0.1101   0.0635  
  3.6926  -0.4530   0.9913   0.1138   0.0657  
  3.7061  -0.4606   0.9908   0.1173   0.0677  
  3.7195  -0.4681   0.9902   0.1208   0.0698  
  3.7330  -0.4754   0.9897   0.1242   0.0717  
  3.7465  -0.4824   0.9891   0.1274   0.0735  
  3.7600  -0.4892   0.9886   0.1304   0.0753  
  3.7734  -0.4956   0.9881   0.1333   0.0770  
  3.7869  -0.5018   0.9876   0.1361   0.0785  
  3.8004  -0.5075   0.9871   0.1386   0.0800  
  3.8139  -0.5130   0.9867   0.1410   0.0814  
  3.8273  -0.5180   0.9862   0.1432   0.0827  
  3.8408  -0.5226   0.9858   0.1452   0.0838  
  3.8543  -0.5268   0.9855   0.1470   0.0849  
  3.8678  -0.5305   0.9852   0.1486   0.0858  
  3.8813  -0.5338   0.9849   0.1501   0.0866  
  3.8947  -0.5365   0.9846   0.1513   0.0873  
  3.9082  -0.5388   0.9844   0.1522   0.0879  
  3.9217  -0.5406   0.9843   0.1530   0.0883  
  3.9352  -0.5419   0.9842   0.1536   0.0887  
  3.9486  -0.5427   0.9841   0.1539   0.0888  
  3.9621  -0.5429   0.9841   0.1540   0.0889  
   
#k-dist(A-1)  energy(eV) : 2 -th eigen 
#wavefunct. coeff.:       1       2       3   
  0.0000   1.3610   0.1778   0.8522   0.4920  
  0.0135   1.3615   0.1777   0.8522   0.4920  
  0.0270   1.3630   0.1773   0.8523   0.4921  
  0.0404   1.3655   0.1767   0.8524   0.4921  
  0.0539   1.3689   0.1758   0.8525   0.4922  
  0.0674   1.3733   0.1747   0.8527   0.4923  
  0.0809   1.3787   0.1733   0.8529   0.4924  
  0.0943   1.3850   0.1716   0.8532   0.4926  
  0.1078   1.3924   0.1698   0.8535   0.4927  
  0.1213   1.4006   0.1677   0.8538   0.4929  
  0.1348   1.4098   0.1654   0.8541   0.4931  
  0.1482   1.4200   0.1628   0.8545   0.4933  
  0.1617   1.4310   0.1601   0.8549   0.4936  
  0.1752   1.4430   0.1571   0.8553   0.4938  
  0.1887   1.4559   0.1539   0.8557   0.4940  
  0.2021   1.4696   0.1506   0.8561   0.4943  
  0.2156   1.4842   0.1471   0.8566   0.4946  
  0.2291   1.4997   0.1434   0.8571   0.4948  
  0.2426   1.5160   0.1395   0.8576   0.4951  
  0.2561   1.5331   0.1355   0.8580   0.4954  
  0.2695   1.5510   0.1313   0.8585   0.4957  
  0.2830   1.5696   0.1271   0.8590   0.4959  
  0.2965   1.5890   0.1227   0.8595   0.4962  
  0.3100   1.6090   0.1182   0.8600   0.4965  
  0.3234   1.6298   0.1136   0.8604   0.4968  
  0.3369   1.6512   0.1090   0.8609   0.4970  
  0.3504   1.6732   0.1042   0.8613   0.4973  
  0.3639   1.6958   0.0994   0.8617   0.4975  
  0.3773   1.7190   0.0946   0.8621   0.4978  
  0.3908   1.7427   0.0897   0.8625   0.4980  
  0.4043   1.7668   0.0848   0.8629   0.4982  
  0.4178   1.7914   0.0799   0.8633   0.4984  
  0.4313   1.8164   0.0750   0.8636   0.4986  
  0.4447   1.8417   0.0702   0.8639   0.4988  
  0.4582   1.8674   0.0653   0.8642   0.4989  
  0.4717   1.8933   0.0604   0.8644   0.4991  
  0.4852   1.9195   0.0556   0.8647   0.4992  
  0.4986   1.9458   0.0509   0.8649   0.4994  
  0.5121   1.9723   0.0462   0.8651   0.4995  
  0.5256   1.9988   0.0416   0.8653   0.4996  
  0.5391   2.0254   0.0370   0.8654   0.4997  
  0.5525   2.0520   0.0325   0.8656   0.4997  
  0.5660   2.0786   0.0281   0.8657   0.4998  
  0.5795   2.1050   0.0238   0.8658   0.4999  
  0.5930   2.1313   0.0196   0.8659   0.4999  
  0.6064   2.1574   0.0154   0.8659   0.4999  
  0.6199   2.1833   0.0114   0.8660   0.5000  
  0.6334   2.2089   0.0075   0.8660   0.5000  
  0.6469   2.2341   0.0037   0.8660   0.5000  
  0.6604   2.2589   0.0000   0.0000   1.0000  
  0.6604   2.2589   0.0000   0.0000   1.0000  
  0.6873   2.2099   0.0000   0.5000   0.8660  
  0.7143   2.1615   0.0000   0.5000   0.8660  
  0.7412   2.1140   0.0000   0.5000   0.8660  
  0.7682   2.0676   0.0000   0.5000   0.8660  
  0.7951   2.0223   0.0000   0.5000   0.8660  
  0.8221   1.9784   0.0000   0.5000   0.8660  
  0.8490   1.9361   0.0000   0.5000   0.8660  
  0.8760   1.8955   0.0000   0.5000   0.8660  
  0.9029   1.8567   0.0000   0.5000   0.8660  
  0.9299   1.8199   0.0000   0.5000   0.8660  
  0.9568   1.7850   0.0000   0.5000   0.8660  
  0.9838   1.7523   0.0000   0.5000   0.8660  
  1.0107   1.7218   0.0000   0.5000   0.8660  
  1.0377   1.6936   0.0000   0.5000   0.8660  
  1.0646   1.6676   0.0000   0.5000   0.8660  
  1.0916   1.6439   0.0000   0.5000   0.8660  
  1.1186   1.6226   0.0000   0.5000   0.8660  
  1.1455   1.6035   0.0000   0.5000   0.8660  
  1.1725   1.5867   0.0000   0.5000   0.8660  
  1.1994   1.5721   0.0000   0.5000   0.8660  
  1.2264   1.5597   0.0000   0.5000   0.8660  
  1.2533   1.5495   0.0000   0.5000   0.8660  
  1.2803   1.5412   0.0000   0.5000   0.8660  
  1.3072   1.5348   0.0000   0.5000   0.8660  
  1.3342   1.5303   0.0000   0.5000   0.8660  
  1.3611   1.5275   0.0000   0.5000   0.8660  
  1.3881   1.5263   0.0000   0.5000   0.8660  
  1.4150   1.5265   0.0000   0.5000   0.8660  
  1.4420   1.5280   0.0000   0.5000   0.8660  
  1.4689   1.5308   0.0000   0.5000   0.8660  
  1.4959   1.5345   0.0000   0.5000   0.8660  
  1.5229   1.5391   0.0000   0.5000   0.8660  
  1.5498   1.5445   0.0000   0.5000   0.8660  
  1.5768   1.5505   0.0000   0.5000   0.8660  
  1.6037   1.5569   0.0000   0.5000   0.8660  
  1.6307   1.5635   0.0000   0.5000   0.8660  
  1.6576   1.5704   0.0000   0.5000   0.8660  
  1.6846   1.5772   0.0000   0.5000   0.8660  
  1.7115   1.5839   0.0000   0.5000   0.8660  
  1.7385   1.5904   0.0000   0.5000   0.8660  
  1.7654   1.5965   0.0000   0.5000   0.8660  
  1.7924   1.6022   0.0000   0.5000   0.8660  
  1.8193   1.6073   0.0000   0.5000   0.8660  
  1.8463   1.6118   0.0000   0.5000   0.8660  
  1.8732   1.6155   0.0000   0.5000   0.8660  
  1.9002   1.6185   0.0000   0.5000   0.8660  
  1.9271   1.6207   0.0000   0.5000   0.8660  
  1.9541   1.6220   0.0000   0.5000   0.8660  
  1.9811   1.6224   0.0000   1.0000   0.0000  
  1.9811   1.6224   0.0000   1.0000   0.0000  
  2.0080   1.6220   0.0000   1.0000   0.0000  
  2.0350   1.6207   0.0000   1.0000   0.0000  
  2.0619   1.6185   0.0000   1.0000   0.0000  
  2.0889   1.6155   0.0000   1.0000   0.0000  
  2.1158   1.6118   0.0000   1.0000   0.0000  
  2.1428   1.6073   0.0000   1.0000   0.0000  
  2.1697   1.6022   0.0000   1.0000   0.0000  
  2.1967   1.5965   0.0000   1.0000   0.0000  
  2.2236   1.5904   0.0000   1.0000   0.0000  
  2.2506   1.5839   0.0000   1.0000   0.0000  
  2.2775   1.5772   0.0000   1.0000   0.0000  
  2.3045   1.5704   0.0000   1.0000   0.0000  
  2.3314   1.5635   0.0000   1.0000   0.0000  
  2.3584   1.5569   0.0000   1.0000   0.0000  
  2.3854   1.5505   0.0000   1.0000   0.0000  
  2.4123   1.5445   0.0000   1.0000   0.0000  
  2.4393   1.5391   0.0000   1.0000   0.0000  
  2.4662   1.5345   0.0000   1.0000   0.0000  
  2.4932   1.5308   0.0000   1.0000   0.0000  
  2.5201   1.5280   0.0000   1.0000   0.0000  
  2.5471   1.5265   0.0000   1.0000   0.0000  
  2.5740   1.5263   0.0000   1.0000   0.0000  
  2.6010   1.5275   0.0000   1.0000   0.0000  
  2.6279   1.5303   0.0000   1.0000   0.0000  
  2.6549   1.5348   0.0000   1.0000   0.0000  
  2.6818   1.5412   0.0000   1.0000   0.0000  
  2.7088   1.5495   0.0000   1.0000   0.0000  
  2.7357   1.5597   0.0000   1.0000   0.0000  
  2.7627   1.5721   0.0000   1.0000   0.0000  
  2.7897   1.5867   0.0000   1.0000   0.0000  
  2.8166   1.6035   0.0000   1.0000   0.0000  
  2.8436   1.6226   0.0000   1.0000   0.0000  
  2.8705   1.6439   0.0000   1.0000   0.0000  
  2.8975   1.6676   0.0000   1.0000   0.0000  
  2.9244   1.6936   0.0000   1.0000   0.0000  
  2.9514   1.7218   0.0000   1.0000   0.0000  
  2.9783   1.7523   0.0000   1.0000   0.0000  
  3.0053   1.7850   0.0000   1.0000   0.0000  
  3.0322   1.8199   0.0000   1.0000   0.0000  
  3.0592   1.8567   0.0000   1.0000   0.0000  
  3.0861   1.8955   0.0000   1.0000   0.0000  
  3.1131   1.9361   0.0000   1.0000   0.0000  
  3.1400   1.9784   0.0000   1.0000   0.0000  
  3.1670   2.0223   0.0000   1.0000   0.0000  
  3.1939   2.0676   0.0000   1.0000   0.0000  
  3.2209   2.1140   0.0000   1.0000   0.0000  
  3.2479   2.1615   0.0000   1.0000   0.0000  
  3.2748   2.2099   0.0000   1.0000   0.0000  
  3.3018   2.2589   0.0000   1.0000   0.0000  
  3.3018   2.2589   0.0000   1.0000   0.0000  
  3.3152   2.2341   0.0037   0.8660   0.5000  
  3.3287   2.2089   0.0075   0.8660   0.5000  
  3.3422   2.1833   0.0114   0.8660   0.5000  
  3.3557   2.1574   0.0154   0.8659   0.4999  
  3.3691   2.1313   0.0196   0.8659   0.4999  
  3.3826   2.1050   0.0238   0.8658   0.4999  
  3.3961   2.0786   0.0281   0.8657   0.4998  
  3.4096   2.0520   0.0325   0.8656   0.4997  
  3.4230   2.0254   0.0370   0.8654   0.4997  
  3.4365   1.9988   0.0416   0.8653   0.4996  
  3.4500   1.9723   0.0462   0.8651   0.4995  
  3.4635   1.9458   0.0509   0.8649   0.4994  
  3.4770   1.9195   0.0556   0.8647   0.4992  
  3.4904   1.8933   0.0604   0.8644   0.4991  
  3.5039   1.8674   0.0653   0.8642   0.4989  
  3.5174   1.8417   0.0702   0.8639   0.4988  
  3.5309   1.8164   0.0750   0.8636   0.4986  
  3.5443   1.7914   0.0799   0.8633   0.4984  
  3.5578   1.7668   0.0848   0.8629   0.4982  
  3.5713   1.7427   0.0897   0.8625   0.4980  
  3.5848   1.7190   0.0946   0.8621   0.4978  
  3.5982   1.6958   0.0994   0.8617   0.4975  
  3.6117   1.6732   0.1042   0.8613   0.4973  
  3.6252   1.6512   0.1090   0.8609   0.4970  
  3.6387   1.6298   0.1136   0.8604   0.4968  
  3.6522   1.6090   0.1182   0.8600   0.4965  
  3.6656   1.5890   0.1227   0.8595   0.4962  
  3.6791   1.5696   0.1271   0.8590   0.4959  
  3.6926   1.5510   0.1313   0.8585   0.4957  
  3.7061   1.5331   0.1355   0.8580   0.4954  
  3.7195   1.5160   0.1395   0.8576   0.4951  
  3.7330   1.4997   0.1434   0.8571   0.4948  
  3.7465   1.4842   0.1471   0.8566   0.4946  
  3.7600   1.4696   0.1506   0.8561   0.4943  
  3.7734   1.4559   0.1539   0.8557   0.4940  
  3.7869   1.4430   0.1571   0.8553   0.4938  
  3.8004   1.4310   0.1601   0.8549   0.4936  
  3.8139   1.4200   0.1628   0.8545   0.4933  
  3.8273   1.4098   0.1654   0.8541   0.4931  
  3.8408   1.4006   0.1677   0.8538   0.4929  
  3.8543   1.3924   0.1698   0.8535   0.4927  
  3.8678   1.3850   0.1716   0.8532   0.4926  
  3.8813   1.3787   0.1733   0.8529   0.4924  
  3.8947   1.3733   0.1747   0.8527   0.4923  
  3.9082   1.3689   0.1758   0.8525   0.4922  
  3.9217   1.3655   0.1767   0.8524   0.4921  
  3.9352   1.3630   0.1773   0.8523   0.4921  
  3.9486   1.3615   0.1777   0.8522   0.4920  
  3.9621   1.3610   0.1778   0.8522   0.4920  
   
#k-dist(A-1)  energy(eV) : 3 -th eigen 
#wavefunct. coeff.:       1       2       3   
  0.0000   3.0756   0.0000   0.5000   0.8660  
  0.0135   3.0752   0.0000   0.5000   0.8660  
  0.0270   3.0738   0.0000   0.5000   0.8660  
  0.0404   3.0716   0.0000   0.5000   0.8660  
  0.0539   3.0685   0.0000   0.5000   0.8660  
  0.0674   3.0646   0.0000   0.5000   0.8660  
  0.0809   3.0597   0.0000   0.5000   0.8660  
  0.0943   3.0541   0.0000   0.5000   0.8660  
  0.1078   3.0475   0.0000   0.5000   0.8660  
  0.1213   3.0401   0.0000   0.5000   0.8660  
  0.1348   3.0319   0.0000   0.5000   0.8660  
  0.1482   3.0228   0.0000   0.5000   0.8660  
  0.1617   3.0129   0.0000   0.5000   0.8660  
  0.1752   3.0023   0.0000   0.5000   0.8660  
  0.1887   2.9908   0.0000   0.5000   0.8660  
  0.2021   2.9786   0.0000   0.5000   0.8660  
  0.2156   2.9656   0.0000   0.5000   0.8660  
  0.2291   2.9518   0.0000   0.5000   0.8660  
  0.2426   2.9374   0.0000   0.5000   0.8660  
  0.2561   2.9222   0.0000   0.5000   0.8660  
  0.2695   2.9064   0.0000   0.5000   0.8660  
  0.2830   2.8898   0.0000   0.5000   0.8660  
  0.2965   2.8727   0.0000   0.5000   0.8660  
  0.3100   2.8549   0.0000   0.5000   0.8660  
  0.3234   2.8365   0.0000   0.5000   0.8660  
  0.3369   2.8176   0.0000   0.5000   0.8660  
  0.3504   2.7981   0.0000   0.5000   0.8660  
  0.3639   2.7781   0.0000   0.5000   0.8660  
  0.3773   2.7575   0.0000   0.5000   0.8660  
  0.3908   2.7365   0.0000   0.5000   0.8660  
  0.4043   2.7151   0.0000   0.5000   0.8660  
  0.4178   2.6932   0.0000   0.5000   0.8660  
  0.4313   2.6709   0.0000   0.5000   0.8660  
  0.4447   2.6483   0.0000   0.5000   0.8660  
  0.4582   2.6253   0.0000   0.5000   0.8660  
  0.4717   2.6020   0.0000   0.5000   0.8660  
  0.4852   2.5784   0.0000   0.5000   0.8660  
  0.4986   2.5546   0.0000   0.5000   0.8660  
  0.5121   2.5305   0.0000   0.5000   0.8660  
  0.5256   2.5062   0.0000   0.5000   0.8660  
  0.5391   2.4818   0.0000   0.5000   0.8660  
  0.5525   2.4572   0.0000   0.5000   0.8660  
  0.5660   2.4325   0.0000   0.5000   0.8660  
  0.5795   2.4078   0.0000   0.5000   0.8660  
  0.5930   2.3829   0.0000   0.5000   0.8660  
  0.6064   2.3581   0.0000   0.5000   0.8660  
  0.6199   2.3332   0.0000   0.5000   0.8660  
  0.6334   2.3084   0.0000   0.5000   0.8660  
  0.6469   2.2836   0.0000   0.5000   0.8660  
  0.6604   2.2589   0.0000   1.0000   0.0000  
  0.6604   2.2589   0.0000   1.0000   0.0000  
  0.6873   2.3073   0.0070   0.8660   0.5000  
  0.7143   2.3536   0.0136   0.8659   0.5000  
  0.7412   2.3974   0.0197   0.8659   0.4999  
  0.7682   2.4385   0.0253   0.8657   0.4998  
  0.7951   2.4766   0.0304   0.8656   0.4998  
  0.8221   2.5114   0.0350   0.8655   0.4997  
  0.8490   2.5426   0.0391   0.8654   0.4996  
  0.8760   2.5700   0.0427   0.8652   0.4995  
  0.9029   2.5935   0.0459   0.8651   0.4995  
  0.9299   2.6129   0.0487   0.8650   0.4994  
  0.9568   2.6280   0.0510   0.8649   0.4994  
  0.9838   2.6388   0.0529   0.8648   0.4993  
  1.0107   2.6452   0.0543   0.8647   0.4993  
  1.0377   2.6472   0.0554   0.8647   0.4992  
  1.0646   2.6449   0.0561   0.8647   0.4992  
  1.0916   2.6382   0.0565   0.8646   0.4992  
  1.1186   2.6273   0.0565   0.8646   0.4992  
  1.1455   2.6123   0.0561   0.8647   0.4992  
  1.1725   2.5933   0.0555   0.8647   0.4992  
  1.1994   2.5706   0.0546   0.8647   0.4993  
  1.2264   2.5442   0.0534   0.8648   0.4993  
  1.2533   2.5146   0.0520   0.8649   0.4993  
  1.2803   2.4819   0.0504   0.8649   0.4994  
  1.3072   2.4464   0.0485   0.8650   0.4994  
  1.3342   2.4084   0.0465   0.8651   0.4995  
  1.3611   2.3682   0.0443   0.8652   0.4995  
  1.3881   2.3263   0.0420   0.8653   0.4996  
  1.4150   2.2828   0.0395   0.8653   0.4996  
  1.4420   2.2382   0.0370   0.8654   0.4997  
  1.4689   2.1929   0.0344   0.8655   0.4997  
  1.4959   2.1472   0.0317   0.8656   0.4997  
  1.5229   2.1014   0.0291   0.8657   0.4998  
  1.5498   2.0559   0.0264   0.8657   0.4998  
  1.5768   2.0112   0.0237   0.8658   0.4999  
  1.6037   1.9675   0.0211   0.8658   0.4999  
  1.6307   1.9251   0.0186   0.8659   0.4999  
  1.6576   1.8845   0.0161   0.8659   0.4999  
  1.6846   1.8459   0.0138   0.8659   0.5000  
  1.7115   1.8095   0.0116   0.8660   0.5000  
  1.7385   1.7758   0.0095   0.8660   0.5000  
  1.7654   1.7449   0.0076   0.8660   0.5000  
  1.7924   1.7171   0.0059   0.8660   0.5000  
  1.8193   1.6925   0.0044   0.8660   0.5000  
  1.8463   1.6714   0.0030   0.8660   0.5000  
  1.8732   1.6540   0.0020   0.8660   0.5000  
  1.9002   1.6402   0.0011   0.8660   0.5000  
  1.9271   1.6304   0.0005   0.8660   0.5000  
  1.9541   1.6244   0.0001   0.8660   0.5000  
  1.9811   1.6224   0.0000   0.0000   1.0000  
  1.9811   1.6224   0.0000   0.0000   1.0000  
  2.0080   1.6244   0.0001   0.0000   1.0000  
  2.0350   1.6304   0.0005   0.0000   1.0000  
  2.0619   1.6402   0.0011   0.0000   1.0000  
  2.0889   1.6540   0.0020   0.0000   1.0000  
  2.1158   1.6714   0.0030   0.0000   1.0000  
  2.1428   1.6925   0.0044   0.0000   1.0000  
  2.1697   1.7171   0.0059   0.0000   1.0000  
  2.1967   1.7449   0.0076   0.0000   1.0000  
  2.2236   1.7758   0.0095   0.0000   1.0000  
  2.2506   1.8095   0.0116   0.0000   0.9999  
  2.2775   1.8459   0.0138   0.0000   0.9999  
  2.3045   1.8845   0.0161   0.0000   0.9999  
  2.3314   1.9251   0.0186   0.0000   0.9998  
  2.3584   1.9675   0.0211   0.0000   0.9998  
  2.3854   2.0112   0.0237   0.0000   0.9997  
  2.4123   2.0559   0.0264   0.0000   0.9997  
  2.4393   2.1014   0.0291   0.0000   0.9996  
  2.4662   2.1472   0.0317   0.0000   0.9995  
  2.4932   2.1929   0.0344   0.0000   0.9994  
  2.5201   2.2382   0.0370   0.0000   0.9993  
  2.5471   2.2828   0.0395   0.0000   0.9992  
  2.5740   2.3263   0.0420   0.0000   0.9991  
  2.6010   2.3682   0.0443   0.0000   0.9990  
  2.6279   2.4084   0.0465   0.0000   0.9989  
  2.6549   2.4464   0.0485   0.0000   0.9988  
  2.6818   2.4819   0.0504   0.0000   0.9987  
  2.7088   2.5146   0.0520   0.0000   0.9986  
  2.7357   2.5442   0.0534   0.0000   0.9986  
  2.7627   2.5706   0.0546   0.0000   0.9985  
  2.7897   2.5933   0.0555   0.0000   0.9985  
  2.8166   2.6123   0.0561   0.0000   0.9984  
  2.8436   2.6273   0.0565   0.0000   0.9984  
  2.8705   2.6382   0.0565   0.0000   0.9984  
  2.8975   2.6449   0.0561   0.0000   0.9984  
  2.9244   2.6472   0.0554   0.0000   0.9985  
  2.9514   2.6452   0.0543   0.0000   0.9985  
  2.9783   2.6388   0.0529   0.0000   0.9986  
  3.0053   2.6280   0.0510   0.0000   0.9987  
  3.0322   2.6129   0.0487   0.0000   0.9988  
  3.0592   2.5935   0.0459   0.0000   0.9989  
  3.0861   2.5700   0.0427   0.0000   0.9991  
  3.1131   2.5426   0.0391   0.0000   0.9992  
  3.1400   2.5114   0.0350   0.0000   0.9994  
  3.1670   2.4766   0.0304   0.0000   0.9995  
  3.1939   2.4385   0.0253   0.0000   0.9997  
  3.2209   2.3974   0.0197   0.0000   0.9998  
  3.2479   2.3536   0.0136   0.0000   0.9999  
  3.2748   2.3073   0.0070   0.0000   1.0000  
  3.3018   2.2589   0.0000   0.0000   1.0000  
  3.3018   2.2589   0.0000   0.0000   1.0000  
  3.3152   2.2836   0.0000   0.5000   0.8660  
  3.3287   2.3084   0.0000   0.5000   0.8660  
  3.3422   2.3332   0.0000   0.5000   0.8660  
  3.3557   2.3581   0.0000   0.5000   0.8660  
  3.3691   2.3829   0.0000   0.5000   0.8660  
  3.3826   2.4078   0.0000   0.5000   0.8660  
  3.3961   2.4325   0.0000   0.5000   0.8660  
  3.4096   2.4572   0.0000   0.5000   0.8660  
  3.4230   2.4818   0.0000   0.5000   0.8660  
  3.4365   2.5062   0.0000   0.5000   0.8660  
  3.4500   2.5305   0.0000   0.5000   0.8660  
  3.4635   2.5546   0.0000   0.5000   0.8660  
  3.4770   2.5784   0.0000   0.5000   0.8660  
  3.4904   2.6020   0.0000   0.5000   0.8660  
  3.5039   2.6253   0.0000   0.5000   0.8660  
  3.5174   2.6483   0.0000   0.5000   0.8660  
  3.5309   2.6709   0.0000   0.5000   0.8660  
  3.5443   2.6932   0.0000   0.5000   0.8660  
  3.5578   2.7151   0.0000   0.5000   0.8660  
  3.5713   2.7365   0.0000   0.5000   0.8660  
  3.5848   2.7575   0.0000   0.5000   0.8660  
  3.5982   2.7781   0.0000   0.5000   0.8660  
  3.6117   2.7981   0.0000   0.5000   0.8660  
  3.6252   2.8176   0.0000   0.5000   0.8660  
  3.6387   2.8365   0.0000   0.5000   0.8660  
  3.6522   2.8549   0.0000   0.5000   0.8660  
  3.6656   2.8727   0.0000   0.5000   0.8660  
  3.6791   2.8898   0.0000   0.5000   0.8660  
  3.6926   2.9064   0.0000   0.5000   0.8660  
  3.7061   2.9222   0.0000   0.5000   0.8660  
  3.7195   2.9374   0.0000   0.5000   0.8660  
  3.7330   2.9518   0.0000   0.5000   0.8660  
  3.7465   2.9656   0.0000   0.5000   0.8660  
  3.7600   2.9786   0.0000   0.5000   0.8660  
  3.7734   2.9908   0.0000   0.5000   0.8660  
  3.7869   3.0023   0.0000   0.5000   0.8660  
  3.8004   3.0129   0.0000   0.5000   0.8660  
  3.8139   3.0228   0.0000   0.5000   0.8660  
  3.8273   3.0319   0.0000   0.5000   0.8660  
  3.8408   3.0401   0.0000   0.5000   0.8660  
  3.8543   3.0475   0.0000   0.5000   0.8660  
  3.8678   3.0541   0.0000   0.5000   0.8660  
  3.8813   3.0597   0.0000   0.5000   0.8660  
  3.8947   3.0646   0.0000   0.5000   0.8660  
  3.9082   3.0685   0.0000   0.5000   0.8660  
  3.9217   3.0716   0.0000   0.5000   0.8660  
  3.9352   3.0738   0.0000   0.5000   0.8660  
  3.9486   3.0752   0.0000   0.5000   0.8660  
  3.9621   3.0756   0.0000   0.5000   0.8660  
